Gold (Z=79) photon attenuation
Energy (MeV) Attenuation (1/cm)
1.00000e-03 8.978e+04
1.50000e-03 4.032e+04
2.00000e-03 2.194e+04
2.20570e-03 1.773e+04
2.20570e-03 1.924e+04
2.24799e-03 2.675e+04
2.29110e-03 4.358e+04
2.29110e-03 4.611e+04
2.50689e-03 4.593e+04
2.74300e-03 4.252e+04
2.74300e-03 4.904e+04
3.00000e-03 3.955e+04
3.14780e-03 3.516e+04
3.14780e-03 3.731e+04
3.28343e-03 3.374e+04
3.42490e-03 3.059e+04
3.42490e-03 3.188e+04
4.00000e-03 2.208e+04
5.00000e-03 1.286e+04
6.00000e-03 8.208e+03
8.00000e-03 3.999e+03
1.00000e-02 2.279e+03
1.19187e-02 1.463e+03
1.19187e-02 3.609e+03
1.27940e-02 2.984e+03
1.37336e-02 2.476e+03
1.37336e-02 3.405e+03
1.40398e-02 3.408e+03
1.43528e-02 3.065e+03
1.43528e-02 3.532e+03
1.50000e-02 3.159e+03
2.00000e-02 1.521e+03
3.00000e-02 5.311e+02
4.00000e-02 2.505e+02
5.00000e-02 1.400e+02
6.00000e-02 8.739e+01
8.00000e-02 4.217e+01
8.07249e-02 4.124e+01
8.07249e-02 1.718e+02
1.00000e-01 9.955e+01
1.50000e-01 3.590e+01
2.00000e-01 1.778e+01
3.00000e-01 7.226e+00
4.00000e-01 4.207e+00
5.00000e-01 2.953e+00
6.00000e-01 2.304e+00
8.00000e-01 1.660e+00
1.00000e+00 1.342e+00
1.25000e+00 1.118e+00
1.50000e+00 9.972e-01
2.00000e+00 8.820e-01
3.00000e+00 8.108e-01
4.00000e+00 8.040e-01
5.00000e+00 8.181e-01
6.00000e+00 8.405e-01
8.00000e+00 8.942e-01
1.00000e+01 9.507e-01
1.50000e+01 1.080e+00
2.00000e+01 1.184e+00
